#   Energy (eV)    Cross-section cm**2/g  Normalized
    12420.1104       -0.265631825E-01   -0.206944038E-03
    12430.1504       -0.401373841E-01   -0.312695687E-03
    12440.1201       -0.534311756E-01   -0.416262745E-03
    12450.1396       -0.615019314E-01   -0.479139067E-03
    12460.1504       -0.716031492E-01   -0.557833991E-03
    12470.1299       -0.799241811E-01   -0.622660096E-03
    12480.1201       -0.917262509E-01   -0.714605732E-03
    12490.1396       -0.978654176E-01   -0.762433687E-03
    12500.1201       -0.104651093       -0.815298466E-03
    12510.1299       -0.103992850       -0.810170313E-03
    12520.1504       -0.106896557       -0.832792022E-03
    12530.1504       -0.102787495       -0.800779846E-03
    12540.1201       -0.916571394E-01   -0.714067311E-03
    12550.1504       -0.764023289E-01   -0.595222635E-03
    12560.1104       -0.542318709E-01   -0.422500685E-03
    12570.1396       -0.210836139E-01   -0.164254729E-03
    12580.1299        0.280301552E-01    0.218372690E-03
    12590.1504        0.966696441E-01    0.753117842E-03
    12600.1396        0.202805743        0.157998549E-02
    12610.1396        0.364311904        0.283822091E-02
    12620.1201        0.634891510        0.494620763E-02
    12630.1201         1.13830888        0.886814855E-02
    12630.3301         1.15280068        0.898104813E-02
    12630.5400         1.16463971        0.907328259E-02
    12630.7402         1.17728209        0.917177461E-02
    12630.9502         1.19332790        0.929678138E-02
    12631.1602         1.20743358        0.940667372E-02
    12631.3701         1.22564924        0.954858493E-02
    12631.5801         1.24139726        0.967127271E-02
    12631.7900         1.25798905        0.980053283E-02
    12632.0000         1.27273047        0.991537794E-02
    12632.2002         1.29015183        0.100511014E-01
    12632.4102         1.30673647        0.101803066E-01
    12632.6201         1.32661605        0.103351809E-01
    12632.8301         1.34409535        0.104713552E-01
    12633.0400         1.36249936        0.106147341E-01
    12633.2500         1.38026810        0.107531641E-01
    12633.4502         1.40010715        0.109077226E-01
    12633.6602         1.42119491        0.110720098E-01
    12633.8701         1.44163096        0.112312203E-01
    12634.0801         1.45729232        0.113532310E-01
    12634.2900         1.47794068        0.115140956E-01
    12634.5000         1.50071764        0.116915423E-01
    12634.7100         1.52247655        0.118610589E-01
    12634.9102         1.54630184        0.120466724E-01
    12635.1201         1.56592679        0.121995630E-01
    12635.3301         1.58955455        0.123836379E-01
    12635.5400         1.61531591        0.125843361E-01
    12635.7500         1.63951409        0.127728544E-01
    12635.9600         1.66274440        0.129538337E-01
    12636.1699         1.68818784        0.131520536E-01
    12636.3799         1.71461582        0.133579448E-01
    12636.5801         1.74367118        0.135843046E-01
    12636.7900         1.76687801        0.137651013E-01
    12637.0000         1.79561234        0.139889587E-01
    12637.2100         1.82325745        0.142043317E-01
    12637.4199         1.85223615        0.144300945E-01
    12637.6299         1.88104415        0.146545274E-01
    12637.8301         1.91189373        0.148948655E-01
    12638.0400         1.94113588        0.151226800E-01
    12638.2500         1.97350883        0.153748859E-01
    12638.4600         2.00491548        0.156195629E-01
    12638.6699         2.03778076        0.158756059E-01
    12638.8799         2.07178235        0.161404982E-01
    12639.0898         2.10565186        0.164043643E-01
    12639.2998         2.14244819        0.166910291E-01
    12639.5000         2.17577934        0.169507023E-01
    12639.7100         2.21291518        0.172400139E-01
    12639.9199         2.25098133        0.175365731E-01
    12640.1299         2.28772449        0.178228244E-01
    12640.3398         2.32903004        0.181446224E-01
    12640.5498         2.36737347        0.184433404E-01
    12640.7598         2.40790200        0.187590849E-01
    12640.9697         2.45288944        0.191095639E-01
    12641.1797         2.49730086        0.194555577E-01
    12641.3799         2.53971863        0.197860189E-01
    12641.5898         2.58667111        0.201518089E-01
    12641.7998         2.63067865        0.204946566E-01
    12642.0098         2.68103218        0.208869409E-01
    12642.2197         2.73094964        0.212758314E-01
    12642.4297         2.77866626        0.216475744E-01
    12642.6396         2.83313346        0.220719073E-01
    12642.8496         2.88799548        0.224993173E-01
    12643.0498         2.94311333        0.229287203E-01
    12643.2598         2.99787259        0.233553294E-01
    12643.4697         3.05499625        0.238003600E-01
    12643.6797         3.11518145        0.242692400E-01
    12643.8896         3.17686892        0.247498248E-01
    12644.0996         3.23832846        0.252286326E-01
    12644.3096         3.30520415        0.257496368E-01
    12644.5195         3.37674069        0.263069533E-01
    12644.7305         3.44393015        0.268303994E-01
    12644.9297         3.51530004        0.273864176E-01
    12645.1396         3.59065843        0.279735066E-01
    12645.3496         3.66621399        0.285621323E-01
    12645.5596         3.74606228        0.291842017E-01
    12645.7695         3.82758069        0.298192818E-01
    12645.9805         3.91313791        0.304858275E-01
    12646.1904         4.00034046        0.311651900E-01
    12646.4004         4.09483624        0.319013707E-01
    12646.6104         4.18145037        0.325761512E-01
    12646.8203         4.27527952        0.333071426E-01
    12647.0195         4.37840271        0.341105349E-01
    12647.2305         4.48153067        0.349139683E-01
    12647.4404         4.59030867        0.357614160E-01
    12647.6504         4.70651484        0.366667360E-01
    12647.8604         4.82451868        0.375860631E-01
    12648.0703         4.94870424        0.385535471E-01
    12648.2803         5.07654619        0.395495147E-01
    12648.4902         5.21060514        0.405939184E-01
    12648.7002         5.35242319        0.416987725E-01
    12648.9102         5.50189495        0.428632498E-01
    12649.0703         5.62513971        0.438234061E-01
    12649.2803         5.78856039        0.450965576E-01
    12649.4902         5.95643997        0.464044474E-01
    12649.7002         6.12921190        0.477504507E-01
    12649.9102         6.31000328        0.491589308E-01
    12650.1201         6.49504375        0.506005101E-01
    12650.3301         6.69938040        0.521924235E-01
    12650.5400         6.90828943        0.538199544E-01
    12650.7500         7.11928940        0.554637797E-01
    12650.9600         7.35021162        0.572628118E-01
    12651.1602         7.59750700        0.591894016E-01
    12651.3701         7.85335064        0.611825846E-01
    12651.5801         8.12432384        0.632936433E-01
    12651.7900         8.40411949        0.654734224E-01
    12652.0000         8.71892548        0.679259598E-01
    12652.2100         9.03511810        0.703893006E-01
    12652.4199         9.37008858        0.729989335E-01
    12652.6299         9.73925209        0.758749545E-01
    12652.8398         10.1279898        0.789034665E-01
    12653.0498         10.5444994        0.821483359E-01
    12653.2598         10.9886074        0.856082216E-01
    12653.4697         11.4570723        0.892578587E-01
    12653.6699         11.9877529        0.933922008E-01
    12653.8799         12.5383024        0.976813287E-01
    12654.0898         13.1279440        0.102275006    
    12654.2998         13.7834778        0.107382037    
    12654.5098         14.4941282        0.112918451    
    12654.7197         15.2583370        0.118872128    
    12654.9297         16.0879364        0.125335246    
    12655.1396         16.9803486        0.132287681    
    12655.3496         17.9982471        0.140217766    
    12655.5596         19.0788765        0.148636550    
    12655.7695         20.2531185        0.157784641    
    12655.9805         21.5879993        0.168184206    
    12656.1904         23.0812149        0.179817304    
    12656.4004         24.7388000        0.192730948    
    12656.5996         26.5841904        0.207107708    
    12656.8096         28.6422138        0.223141029    
    12657.0195         31.1183167        0.242431417    
    12657.2305         33.8449554        0.263673693    
    12657.4404         36.9181213        0.287615597    
    12657.6504         40.5554619        0.315952778    
    12657.8604         44.7795715        0.348861277    
    12658.0703         49.5838127        0.386289358    
    12658.2803         55.1000290        0.429264188    
    12658.4902         61.4329185        0.478601426    
    12658.7002         69.0799179        0.538176358    
    12658.8701         75.7775192        0.590354979    
    12659.0801         84.8333054        0.660905302    
    12659.2803         95.1265335        0.741096020    
    12659.4902         106.488007        0.829609156    
    12659.7002         118.823250        0.925708473    
    12659.9102         130.946121         1.02015328    
    12660.1201         143.001221         1.11407018    
    12660.3301         155.042633         1.20788050    
    12660.5400         165.645706         1.29048514    
    12660.7500         174.165070         1.35685635    
    12660.9600         180.469620         1.40597284    
    12661.1699         184.373962         1.43639004    
    12661.3799         185.925827         1.44848013    
    12661.5898         185.489426         1.44508028    
    12661.7998         183.738235         1.43143737    
    12662.0098         181.199646         1.41166019    
    12662.2197         178.482971         1.39049554    
    12662.4297         175.982788         1.37101758    
    12662.6396         173.854935         1.35444021    
    12662.8496         172.231842         1.34179533    
    12663.0596         171.098236         1.33296382    
    12663.2598         170.452255         1.32793117    
    12663.4697         170.119415         1.32533824    
    12663.6797         169.993713         1.32435894    
    12663.8896         170.009094         1.32447875    
    12664.0996         170.100372         1.32518983    
    12664.3096         170.247360         1.32633495    
    12664.5195         170.444733         1.32787263    
    12664.7305         170.709976         1.32993901    
    12664.9404         171.010605         1.33228111    
    12665.1504         171.352356         1.33494353    
    12665.3604         171.716339         1.33777916    
    12665.5703         172.034668         1.34025919    
    12665.7803         172.229919         1.34178030    
    12665.9502         172.266068         1.34206200    
    12666.1602         172.115036         1.34088528    
    12666.3701         171.678436         1.33748388    
    12666.5801         170.950134         1.33181012    
    12666.7900         169.970779         1.32418013    
    12667.0000         168.674072         1.31407809    
    12667.2100         167.119461         1.30196667    
    12667.4199         165.347458         1.28816164    
    12667.6299         163.516739         1.27389920    
    12667.8398         161.582352         1.25882900    
    12668.0498         159.553848         1.24302566    
    12668.2598         157.591309         1.22773623    
    12668.4600         155.758240         1.21345556    
    12668.6699         153.918671         1.19912410    
    12668.8799         152.147781         1.18532777    
    12669.0898         150.447876         1.17208433    
    12669.2998         148.880798         1.15987587    
    12669.5098         147.367615         1.14808714    
    12669.7197         145.855438         1.13630641    
    12669.9297         144.447922         1.12534094    
    12670.1396         143.158966         1.11529922    
    12670.3496         141.893234         1.10543835    
    12670.5596         140.727158         1.09635377    
    12670.7695         139.684143         1.08822811    
    12670.9805         138.803207         1.08136511    
    12671.1904         138.047867         1.07548058    
    12671.4004         137.428879         1.07065821    
    12671.6104         136.992279         1.06725681    
    12671.8203         136.722809         1.06515741    
    12672.0303         136.597412         1.06418049    
    12672.2002         136.608231         1.06426477    
    12672.4102         136.744659         1.06532764    
    12672.6201         136.994919         1.06727743    
    12672.8301         137.336884         1.06994152    
    12673.0400         137.755768         1.07320487    
    12673.2500         138.226532         1.07687247    
    12673.4600         138.727570         1.08077574    
    12673.6699         139.240356         1.08477080    
    12673.8799         139.764725         1.08885586    
    12674.0898         140.280640         1.09287512    
    12674.2998         140.757645         1.09659135    
    12674.5098         141.213226         1.10014057    
    12674.7197         141.636932         1.10344160    
    12674.9297         142.008652         1.10633755    
    12675.1396         142.328506         1.10882926    
    12675.3496         142.596558         1.11091769    
    12675.5596         142.810822         1.11258698    
    12675.7695         142.968384         1.11381435    
    12675.9805         143.054840         1.11448801    
    12676.1904         143.081680         1.11469710    
    12676.4004         143.036438         1.11434460    
    12676.6104         142.929550         1.11351180    
    12676.8203         142.749756         1.11211121    
    12677.0303         142.506424         1.11021543    
    12677.2402         142.190186         1.10775173    
    12677.4502         141.799042         1.10470450    
    12677.6201         141.458038         1.10204792    
    12677.8301         140.961121         1.09817648    
    12678.0400         140.416641         1.09393466    
    12678.2500         139.833740         1.08939362    
    12678.4600         139.212234         1.08455169    
    12678.6699         138.572037         1.07956409    
    12678.8799         137.913834         1.07443619    
    12679.0898         137.248993         1.06925678    
    12679.2998         136.603256         1.06422603    
    12679.5098         135.952698         1.05915773    
    12679.7197         135.330490         1.05431032    
    12679.9297         134.730713         1.04963768    
    12680.1396         134.144501         1.04507077    
    12680.3496         133.579407         1.04066837    
    12680.5596         133.031708         1.03640139    
    12680.7695         132.499588         1.03225589    
    12680.9805         131.986389         1.02825773    
    12681.1904         131.472473         1.02425396    
    12681.4004         130.969513         1.02033567    
    12681.6104         130.477325         1.01650119    
    12681.8203         129.962509         1.01249039    
    12682.0303         129.466797         1.00862849    
    12682.2402         128.976913         1.00481200    
    12682.4502         128.490952         1.00102603    
    12682.6201         128.111450        0.998069406    
    12682.8301         127.616035        0.994209886    
    12683.0400         127.119118        0.990338564    
    12683.2500         126.631950        0.986543238    
    12683.4600         126.151222        0.982798040    
    12683.6699         125.674110        0.979081035    
    12683.8799         125.182419        0.975250483    
    12684.0898         124.726227        0.971696436    
    12684.2998         124.291946        0.968313158    
    12684.5098         123.863708        0.964976847    
    12684.7197         123.455872        0.961799622    
    12684.9297         123.081932        0.958886325    
    12685.1396         122.742271        0.956240177    
    12685.7695         121.878746        0.949512780    
    12686.4004         121.363335        0.945497334    
    12687.0801         121.191261        0.944156826    
    12687.7900         121.392128        0.945721686    
    12688.5098         121.898499        0.949666679    
    12689.2197         122.598404        0.955119312    
    12689.9805         123.439240        0.961669981    
    12690.7402         124.291542        0.968309999    
    12691.5400         125.122467        0.974783421    
    12692.3398         125.798943        0.980053604    
    12693.1396         126.263969        0.983676434    
    12693.9805         126.557396        0.985962391    
    12694.8701         126.704689        0.987109900    
    12695.7500         126.773621        0.987646937    
    12696.6299         126.835220        0.988126874    
    12697.5596         126.916595        0.988760829    
    12698.4902         126.997269        0.989389300    
    12699.4600         127.078690        0.990023613    
    12700.4697         127.143753        0.990530491    
    12701.4404         127.206367        0.991018355    
    12702.4502         127.359016        0.992207587    
    12703.5098         127.671516        0.994642079    
    12704.5596         128.094086        0.997934163    
    12705.6602         128.636276         1.00215816    
    12706.7598         129.270569         1.00709975    
    12707.8496         129.963165         1.01249552    
    12709.0000         130.701920         1.01825082    
    12710.1396         131.318665         1.02305567    
    12711.3203         131.788651         1.02671719    
    12712.5000         132.112656         1.02924132    
    12713.7305         132.353363         1.03111672    
    12714.9502         132.537949         1.03255463    
    12716.2197         132.613907         1.03314638    
    12717.4902         132.498215         1.03224516    
    12718.7598         132.224167         1.03011024    
    12720.0703         131.867218         1.02732933    
    12721.4199         131.522675         1.02464509    
    12722.7305         131.054413         1.02099705    
    12724.1299         130.745850         1.01859307    
    12725.4902         130.357117         1.01556468    
    12726.9297         129.961426         1.01248193    
    12728.3203         129.646103         1.01002538    
    12729.7598         129.401245         1.00811779    
    12731.2500         129.177277         1.00637293    
    12732.7305         128.898987         1.00420499    
    12734.2100         128.552841         1.00150824    
    12735.7402         128.213715        0.998866141    
    12737.3096         127.954758        0.996848762    
    12738.8398         127.741028        0.995183647    
    12740.4502         127.505959        0.993352354    
    12742.0195         127.297104        0.991725206    
    12743.6299         127.097046        0.990166664    
    12745.2900         126.895363        0.988595426    
    12746.9502         126.698418        0.987061024    
    12748.5996         126.508675        0.985582888    
    12750.2998         126.329681        0.984188378    
    12752.0498         126.185165        0.983062446    
    12753.7900         126.058914        0.982078910    
    12755.5400         125.926880        0.981050313    
    12757.2803         125.886421        0.980735064    
    12759.1104         125.944221        0.981185377    
    12760.9004         126.052170        0.982026398    
    12762.7305         126.133522        0.982660174    
    12764.6104         126.169113        0.982937455    
    12766.4404         126.165520        0.982909441    
    12768.3604         126.143356        0.982736826    
    12770.2695         126.126198        0.982603133    
    12772.1904         126.129097        0.982625723    
    12774.1104         126.138542        0.982699275    
    12776.1201         126.134247        0.982665777    
    12778.0801         126.144463        0.982745349    
    12780.0898         126.218216        0.983319938    
    12782.0996         126.362663        0.984445333    
    12784.1504         126.582687        0.986159444    
    12786.2500         126.835075        0.988125741    
    12788.2998         127.121086        0.990353942    
    12790.3896         127.376587        0.992344439    
    12792.5303         127.518257        0.993448138    
    12794.6699         127.494034        0.993259430    
    12796.8203         127.360764        0.992221177    
    12799.0000         127.210526        0.991050720    
    12801.2305         127.107948        0.990251541    
    12803.4199         127.055107        0.989839911    
    12805.6904         127.012932        0.989511371    
    12807.9199         126.975357        0.989218593    
    12810.2002         126.927917        0.988849044    
    12812.5098         126.893181        0.988578379    
    12814.8301         126.854172        0.988274515    
    12817.1504         126.787727        0.987756848    
    12819.5195         126.674835        0.986877322    
    12821.8799         126.510635        0.985598147    
    12824.2900         126.269821        0.983722031    
    12826.7002         125.959244        0.981302440    
    12829.1104         125.615005        0.978620589    
    12831.5703         125.292282        0.976106346    
    12834.0195         125.019211        0.973978996    
    12836.5195         124.803764        0.972300529    
    12839.0195         124.638206        0.971010745    
    12841.5703         124.522026        0.970105588    
    12844.1104         124.478127        0.969763577    
    12846.6602         124.468163        0.969685972    
    12849.2500         124.508247        0.969998300    
    12851.8896         124.549454        0.970319271    
    12854.4805         124.553780        0.970353007    
    12857.1602         124.529221        0.970161617    
    12859.7998         124.435242        0.969429493    
    12862.4805         124.291367        0.968308628    
    12865.2100         124.173347        0.967389166    
    12867.9004         124.107285        0.966874480    
    12870.6699         124.063568        0.966533899    
    12873.4004         124.047470        0.966408491    
    12876.1797         124.056328        0.966477513    
    12879.0000         124.079140        0.966655254    
    12881.8203         124.105598        0.966861367    
    12884.6396         124.139114        0.967122436    
    12887.5098         124.172447        0.967382193    
    12890.3799         124.191734        0.967532396    
    12893.2900         124.197121        0.967574358    
    12896.2100         124.153107        0.967231452    
    12899.1299         124.064171        0.966538608    
    12902.0898         123.967072        0.965782106    
    12905.0498         123.898552        0.965248346    
    12908.0596         123.844444        0.964826763    
    12911.0703         123.806847        0.964533865    
    12914.0801         123.779434        0.964320302    
    12917.1299         123.739334        0.964007974    
    12920.2402         123.693382        0.963649929    
    12923.2900         123.643288        0.963259637    
    12926.4004         123.574455        0.962723434    
    12929.5498         123.475555        0.961952925    
    12932.7002         123.350342        0.960977376    
    12935.8496         123.213692        0.959912837    
    12939.0498         123.056053        0.958684742    
    12942.2500         122.895134        0.957431078    
    12945.5000         122.742294        0.956240356    
    12948.7002         122.607483        0.955190063    
    12951.9902         122.478996        0.954189122    
    12955.2900         122.367989        0.953324258    
    12958.5801         122.262794        0.952504754    
    12961.8799         122.147224        0.951604366    
    12965.2197         122.020485        0.950617015    
    12968.6104         121.888458        0.949588478    
    12971.9600         121.770981        0.948673189    
    12975.3496         121.653603        0.947758794    
    12978.7900         121.552460        0.946970761    
    12982.2305         121.458893        0.946241796    
    12985.6797         121.367714        0.945531487    
    12989.1699         121.295540        0.944969237    
    12992.6602         121.228333        0.944445610    
    12996.1904         121.139511        0.943753660    
    12999.6904         121.061058        0.943142414    
    13003.2695         121.008514        0.942733109    
    13006.8096         120.963593        0.942383111    
    13010.4502         120.918625        0.942032814    
    13014.0400         120.867050        0.941631019    
    13017.6797         120.810806        0.941192806    
    13021.3203         120.748764        0.940709472    
    13025.0000         120.666725        0.940070331    
    13028.6904         120.581955        0.939409912    
    13032.3799         120.494408        0.938727915    
    13036.1201         120.405113        0.938032210    
    13039.8604         120.308823        0.937282026    
    13043.6504         120.219124        0.936583221    
    13047.4297         120.125099        0.935850739    
    13051.2197         120.018997        0.935024142    
    13055.0596         119.917480        0.934233308    
    13058.9004         119.813599        0.933423936    
    13062.7500         119.701057        0.932547152    
    13066.6299         119.592712        0.931703091    
    13070.5303         119.472633        0.930767655    
    13074.4697         119.334488        0.929691374    
    13078.4102         119.207947        0.928705513    
    13082.3496         119.089493        0.927782714    
    13086.3398         118.968605        0.926840901    
    13090.3301         118.847557        0.925897837    
    13094.3799         118.717979        0.924888372    
    13098.4199         118.595444        0.923933744    
    13102.4697         118.465462        0.922921121    
    13106.5195         118.352325        0.922039688    
    13110.6104         118.257011        0.921297133    
    13114.7598         118.151062        0.920471787    
    13118.9004         118.053169        0.919709086    
    13123.0498         117.947525        0.918886065    
    13127.2100         117.832222        0.917987823    
    13131.4102         117.725609        0.917157173    
    13135.6104         117.632317        0.916430414    
    13139.8604         117.524338        0.915589154    
    13144.1104         117.426758        0.914828956    
    13148.3701         117.346275        0.914201975    
    13152.6699         117.226822        0.913271308    
    13156.9805         117.137535        0.912575722    
    13161.2900         117.054535        0.911929131    
    13165.6504         116.964691        0.911229134    
    13170.0098         116.878319        0.910556257    
    13174.3799         116.790749        0.909874022    
    13178.7900         116.698799        0.909157693    
    13183.2100         116.610374        0.908468783    
    13187.6699         116.520439        0.907768190    
    13192.1396         116.421211        0.906995118    
    13196.6201         116.324387        0.906240761    
    13201.1299         116.235214        0.905546069    
    13205.6602         116.132835        0.904748499    
    13210.1797         116.032845        0.903969467    
    13214.7598         115.934494        0.903203249    
    13219.3398         115.826874        0.902364850    
    13223.9199         115.730850        0.901616752    
    13228.5498         115.629173        0.900824606    
    13233.1904         115.516930        0.899950147    
    13237.8301         115.407547        0.899097979    
    13242.5098         115.288200        0.898168206    
    13247.2002         115.172981        0.897270560    
    13251.9004         115.057686        0.896372318    
    13256.6396         114.934547        0.895413041    
    13261.3896         114.819443        0.894516349    
    13266.1904         114.706543        0.893636763    
    13270.9902         114.591698        0.892742038    
    13275.7900         114.482414        0.891890645    
    13280.5996         114.377098        0.891070187    
    13285.4600         114.267601        0.890217125    
    13290.3203         114.163330        0.889404774    
    13295.2305         114.063332        0.888625681    
    13300.1396         113.960510        0.887824714    
    13305.0596         113.861259        0.887051463    
    13310.0303         113.755112        0.886224508    
    13315.0000         113.662025        0.885499299    
    13319.9805         113.567726        0.884764612    
    13324.9600         113.469467        0.883999109    
    13329.9902         113.373863        0.883254349    
    13335.0303         113.281464        0.882534504    
    13340.1104         113.186378        0.881793737    
    13345.2002         113.094086        0.881074667    
    13350.2900         112.996582        0.880315065    
    13355.3896         112.908539        0.879629135    
    13360.5400         112.817101        0.878916800    
    13365.6904         112.730202        0.878239810    
    13370.8896         112.641983        0.877552509    
    13376.0996         112.552498        0.876855373    
    13381.3096         112.451820        0.876071036    
    13386.5303         112.347603        0.875259101    
    13391.7998         112.239983        0.874420643    
    13397.0703         112.139839        0.873640537    
    13402.3896         112.044975        0.872901440    
    13407.6699         111.947632        0.872143090    
    13413.0498         111.859291        0.871454895    
    13418.3799         111.756561        0.870654523    
    13423.7695         111.660728        0.869907916    
    13429.1602         111.559822        0.869121790    
    13434.5596         111.452286        0.868284047    
    13440.0098         111.350357        0.867489934    
    13445.4600         111.226517        0.866525173    
    13450.9199         111.136620        0.865824759    
    13456.3799         111.038094        0.865057230    
    13461.9004         110.938110        0.864278257    
    13467.4102         110.843269        0.863539398    
    13472.9902         110.742859        0.862757146    
    13478.5596         110.649483        0.862029672    
    13484.1396         110.564468        0.861367345    
    13489.7305         110.458214        0.860539556    
    13495.3701         110.372604        0.859872639    
    13501.0098         110.272652        0.859093904    
    13506.6602         110.175049        0.858333528    
    13512.3604         110.108864        0.857817948    
    13518.0596         110.003166        0.856994450    
    13523.7695         109.914925        0.856307030    
    13529.5400         109.818260        0.855553925    
    13535.2998         109.728004        0.854850769    
    13541.0801         109.665436        0.854363322    
    13546.8496         109.496498        0.853047192    
    13552.6904         109.472755        0.852862239    
    13558.5195         109.391762        0.852231264    
    13564.3701         109.314438        0.851628840    
    13570.2598         109.232452        0.850990117    
    13576.1602         109.142441        0.850288868    
    13582.0703         109.053856        0.849598706    
    13587.9805         108.959496        0.848863602    
    13593.9502         108.872070        0.848182499    
    13599.9199         108.785881        0.847511053    
    13605.8896         108.707977        0.846904099    
    13611.9199         108.622574        0.846238732    
    13617.9600         108.529709        0.845515311    
    13624.0000         108.439102        0.844809413    
    13630.0996         108.341797        0.844051361    
    13636.1504         108.250488        0.843339980    
    13642.2598         108.163040        0.842658699    
    13648.4199         108.069061        0.841926515    
    13654.5400         107.981255        0.841242492    
    13660.7100         107.884796        0.840491056    
    13666.8896         107.798477        0.839818537    
    13673.1201         107.544998        0.837843776    
    13679.3096         107.747337        0.839420140    
    13685.5596         107.499428        0.837488770    
    13691.8604         107.647629        0.838643312    
    13698.1104         107.437157        0.837003648    
    13704.4199         107.322342        0.836109161    
    13710.7402         107.190445        0.835081577    
    13717.0703         107.112907        0.834477484    
    13723.4502         107.045166        0.833949745    
    13729.8301         106.952339        0.833226562    
    13736.2197         106.876427        0.832635224    
    13742.6201         106.804947        0.832078278    
    13749.0801         106.721748        0.831430137    
    13755.5400         106.644524        0.830828488    
    13762.0000         106.563484        0.830197155    
    13768.5303         106.487167        0.829602599    
    13775.0000         106.395386        0.828887582    
    13781.5400         106.324074        0.828331947    
    13788.1299         106.251465        0.827766299    
    13794.6797         106.169044        0.827124238    
    13801.2803         106.096596        0.826559782    
    13807.8896         106.057571        0.826255798    
    13814.5098         105.956467        0.825468123    
    13821.1904         105.821983        0.824420393    
    13827.8701         105.724815        0.823663414    
    13834.5498         105.673622        0.823264599    
    13841.2500         105.616402        0.822818816    
    13847.9502         105.537819        0.822206557    
    13854.7100         105.452705        0.821543515    
    13861.4697         105.387566        0.821036041    
    13868.2900         105.305031        0.820392966    
    13875.0703         105.232353        0.819826782    
    13881.9102         105.150513        0.819189250    
    13888.7500         105.084915        0.818678141    
    13895.5996         104.994492        0.817973673    
    13902.5098         104.937363        0.817528605    
    13909.3701         104.876785        0.817056715    
    13916.2900         104.805031        0.816497684    
    13923.2695         104.728638        0.815902531    
    13930.2100         104.651688        0.815303028    
    13937.2002         104.565628        0.814632535    
