#   Energy (eV)    Cross-section cm**2/g  Normalized
    12423.4404       -0.126520216       -0.985672814E-03
    12433.4404       -0.767254233E-01   -0.597739709E-03
    12443.4199       -0.618661009E-01   -0.481976167E-03
    12453.4102       -0.330752641       -0.257677305E-02
    12463.4199       -0.148525804       -0.115711021E-02
    12473.4004       -0.321068197       -0.250132498E-02
    12483.4004       -0.799288824E-01   -0.622696709E-03
    12493.4199       -0.205270678       -0.159918878E-02
    12503.4199       -0.205524921       -0.160116947E-02
    12513.3799       -0.131666288       -0.102576392E-02
    12523.4102       -0.844390839E-01   -0.657834054E-03
    12533.4102       -0.242250580E-01   -0.188728576E-03
    12543.3896       -0.701386556E-01   -0.546424650E-03
    12553.3896       -0.465640500E-01   -0.362763501E-03
    12563.4004       -0.319725201E-01   -0.249086210E-03
    12573.3799        0.954713300E-01    0.743782206E-03
    12583.3896        0.189836487        0.147894665E-02
    12593.3604        0.269940615        0.210300856E-02
    12603.3604        0.366845250        0.285795727E-02
    12613.3701        0.392967284        0.306146452E-02
    12623.3496        0.737734795        0.574742211E-02
    12633.3604         1.17429733        0.914852135E-02
    12633.7305         1.26491773        0.985451136E-02
    12634.0703         1.42363536        0.110910228E-01
    12634.4404         1.21783185        0.948768295E-02
    12634.7803         1.27238858        0.991271436E-02
    12635.1504         1.31071246        0.102112815E-01
    12635.4805         1.32090271        0.102906702E-01
    12635.8203         1.46672356        0.114267068E-01
    12636.1904         1.28999770        0.100499010E-01
    12636.5303         1.36828840        0.106598344E-01
    12636.9004         1.52479172        0.118790949E-01
    12637.2402         1.40308750        0.109309414E-01
    12637.6104         1.72412050        0.134319933E-01
    12637.9502         1.68437922        0.131223826E-01
    12638.2803         1.88144410        0.146576436E-01
    12638.6602         1.90367305        0.148308212E-01
    12638.9902         1.85322249        0.144377789E-01
    12639.3701         2.01503229        0.156983808E-01
    12639.7002         1.97961950        0.154224923E-01
    12640.0801         2.23249912        0.173925851E-01
    12640.4102         2.23667669        0.174251311E-01
    12640.7402         2.19431853        0.170951337E-01
    12641.1201         2.29491544        0.178788472E-01
    12641.4502         2.21017385        0.172186550E-01
    12641.8301         2.62895107        0.204811972E-01
    12642.1602         2.49549007        0.194414519E-01
    12642.5400         2.54775000        0.198485889E-01
    12642.8701         2.61881661        0.204022434E-01
    12643.2100         2.73363662        0.212967638E-01
    12643.5801         2.80587792        0.218595695E-01
    12643.9199         2.82524920        0.220104847E-01
    12644.2900         2.97707653        0.231933147E-01
    12644.6299         2.90357304        0.226206761E-01
    12645.0000         3.14785647        0.245237984E-01
    12645.3398         3.35590410        0.261446219E-01
    12645.6699         3.16120791        0.246278159E-01
    12646.0498         3.40171003        0.265014805E-01
    12646.3799         3.60459590        0.280820895E-01
    12646.7598         3.46670008        0.270077940E-01
    12647.0898         3.61413431        0.281563997E-01
    12647.4697         3.76333237        0.293187480E-01
    12647.7998         3.99906588        0.311552603E-01
    12648.1396         4.16945028        0.324826613E-01
    12648.5195         3.97865772        0.309962668E-01
    12648.8496         4.15873671        0.323991962E-01
    12649.2305         4.21840715        0.328640677E-01
    12649.5596         4.22304392        0.329001918E-01
    12649.9004         4.52190590        0.352285169E-01
    12650.2695         4.59997702        0.358367376E-01
    12650.6104         4.88833427        0.380832255E-01
    12650.9805         5.27409172        0.410885215E-01
    12651.3203         5.21909904        0.406600945E-01
    12651.6904         5.44465971        0.424173549E-01
    12652.0303         5.87971640        0.458067209E-01
    12652.3604         6.20884085        0.483708084E-01
    12652.7402         6.34488106        0.494306497E-01
    12653.0801         6.65755558        0.518665835E-01
    12653.4502         6.99179125        0.544704907E-01
    12653.7900         7.34207535        0.571994260E-01
    12654.1201         7.86482191        0.612719506E-01
    12654.5000         8.19507408        0.638448298E-01
    12654.8301         8.80275440        0.685790405E-01
    12655.2100         9.13279629        0.711502805E-01
    12655.5400         9.70997334        0.756468549E-01
    12655.8799         10.1194286        0.788367689E-01
    12656.2598         10.8369474        0.844267011E-01
    12656.5898         11.5238028        0.897777379E-01
    12656.9697         12.2223015        0.952194855E-01
    12657.2998         12.9659729        0.101013161    
    12657.6797         14.0470037        0.109435074    
    12658.0098         15.0094595        0.116933212    
    12658.3496         16.1996078        0.126205221    
    12658.7305         17.5542622        0.136758834    
    12659.0596         19.0160694        0.148147240    
    12659.4404         21.0003643        0.163606152    
    12659.7695         22.9926128        0.179127038    
    12660.1104         25.3652153        0.197611123    
    12660.4902         28.1668530        0.219437659    
    12660.8203         31.0095139        0.241583794    
    12661.2002         35.1906357        0.274157375    
    12661.5303         39.2304192        0.305629849    
    12661.8701         44.4346504        0.346174121    
    12662.2500         52.0198402        0.405267537    
    12662.5801         60.2984772        0.469763398    
    12662.9600         72.0433273        0.561263204    
    12663.2900         84.8625793        0.661133349    
    12663.6299         100.024017        0.779250562    
    12664.0098         121.719345        0.948270917    
    12664.3398         145.195358         1.13116395    
    12664.7197         178.864975         1.39347160    
    12665.0498         217.065552         1.69107842    
    12665.3896         264.349762         2.05945230    
    12665.7695         328.944031         2.56268263    
    12666.0996         390.416595         3.04159307    
    12666.4805         455.671387         3.54996943    
    12666.8096         498.544464         3.88397765    
    12667.1504         518.979858         4.04318237    
    12667.5303         510.913147         3.98033762    
    12667.8604         478.245667         3.72583699    
    12668.2002         430.003540         3.35000038    
    12668.5801         369.894989         2.88171673    
    12668.9102         318.408569         2.48060489    
    12669.2900         269.808990         2.10198331    
    12669.6201         236.015823         1.83871305    
    12669.9600         209.694519         1.63365328    
    12670.3398         187.815170         1.46319938    
    12670.6699         173.759628         1.35369778    
    12671.0498         161.963242         1.26179636    
    12671.3896         154.443771         1.20321500    
    12671.7197         148.407974         1.15619230    
    12672.0996         143.392212         1.11711633    
    12672.4404         139.850250         1.08952212    
    12672.8096         136.847397         1.06612802    
    12673.1504         135.140121         1.05282736    
    12673.4902         133.698761         1.04159820    
    12673.8604         132.871567         1.03515387    
    12674.2002         132.407547         1.03153884    
    12674.5400         132.542679         1.03259158    
    12674.9102         132.981903         1.03601336    
    12675.2500         133.772812         1.04217517    
    12675.6299         135.273911         1.05386961    
    12675.9600         136.700623         1.06498456    
    12676.2998         138.164139         1.07638621    
    12676.6797         140.505737         1.09462881    
    12677.0098         142.470200         1.10993326    
    12677.3896         144.696152         1.12727487    
    12677.7305         146.776031         1.14347851    
    12678.0596         148.841080         1.15956652    
    12678.4404         151.433914         1.17976630    
    12678.7803         153.548035         1.19623661    
    12679.1201         155.265945         1.20962024    
    12679.4902         157.330109         1.22570145    
    12679.8301         158.773178         1.23694384    
    12680.2100         160.108063         1.24734342    
    12680.5400         160.879715         1.25335503    
    12680.8799         161.432343         1.25766039    
    12681.2598         161.687485         1.25964820    
    12681.5898         161.603348         1.25899255    
    12681.9297         161.092880         1.25501573    
    12682.3096         160.616776         1.25130665    
    12682.6504         159.401016         1.24183500    
    12683.0195         158.583160         1.23546350    
    12683.3604         157.399460         1.22624159    
    12683.9902         154.959854         1.20723557    
    12684.6201         152.288773         1.18642616    
    12685.2900         149.483536         1.16457152    
    12685.9697         146.636078         1.14238811    
    12686.6797         143.636887         1.11902249    
    12687.4004         140.747330         1.09651101    
    12688.1602         137.903809         1.07435822    
    12688.9102         135.253738         1.05371249    
    12689.7100         132.145950         1.02950072    
    12690.5098         129.444031         1.00845110    
    12691.3096         126.784462        0.987731397    
    12692.1602         124.165337        0.967326760    
    12693.0000         121.597488        0.947321594    
    12693.8799         118.715286        0.924867392    
    12694.7695         115.972610        0.903500259    
    12695.6904         113.070839        0.880893588    
    12696.6201         110.379677        0.859927714    
    12697.5898         107.687782        0.838956177    
    12698.5596         105.382942        0.820999980    
    12699.5703         103.321701        0.804941654    
    12700.5801         101.812057        0.793180525    
    12701.5898         101.061317        0.787331760    
    12702.6504         100.620468        0.783897281    
    12703.7100         100.487259        0.782859504    
    12704.7998         100.402237        0.782197118    
    12705.9004         100.585030        0.783621252    
    12707.0400         101.150597        0.788027346    
    12708.1797         102.068947        0.795181811    
    12709.3604         103.031067        0.802677393    
    12710.5400         104.352509        0.812972248    
    12711.7305         105.006783        0.818069458    
    12712.9502         106.145805        0.826943219    
    12714.1797         107.317802        0.836073756    
    12715.4502         108.648788        0.846442997    
    12716.7100         110.014198        0.857080400    
    12718.0195         110.993050        0.864706278    
    12719.3301         112.336952        0.875176132    
    12720.6904         113.823753        0.886759222    
    12722.0400         115.182205        0.897342443    
    12723.4004         116.805267        0.909987092    
    12724.7900         118.388138        0.922318697    
    12726.2305         120.223984        0.936621070    
    12727.6299         121.925049        0.949873447    
    12729.1104         123.453644        0.961782217    
    12730.5498         124.990227        0.973753154    
    12732.0400         126.795998        0.987821221    
    12733.5596         128.270279        0.999306858    
    12735.0898         129.823029         1.01140380    
    12736.6201         130.817108         1.01914823    
    12738.1904         131.906143         1.02763259    
    12739.7998         132.432953         1.03173673    
    12741.4102         132.986191         1.03604686    
    12743.0195         133.126480         1.03713965    
    12744.6396         133.441635         1.03959489    
    12746.3398         133.021103         1.03631878    
    12748.0000         132.757660         1.03426635    
    12749.6904         132.670563         1.03358781    
    12751.4404         132.565018         1.03276563    
    12753.1396         132.933624         1.03563726    
    12754.9297         133.132935         1.03718996    
    12756.6699         133.052185         1.03656089    
    12758.5000         133.129227         1.03716123    
    12760.2900         132.983795         1.03602815    
    12762.1201         132.771454         1.03437388    
    12763.9902         132.574799         1.03284180    
    12765.8701         132.314163         1.03081131    
    12767.7402         132.016998         1.02849627    
    12769.6602         131.490906         1.02439761    
    12771.5801         130.792969         1.01896024    
    12773.5400         129.748123         1.01082015    
    12775.5098         128.482071         1.00095689    
    12777.4697         127.415108        0.992644548    
    12779.4805         126.111046        0.982485056    
    12781.5303         124.694084        0.971446037    
    12783.5801         123.532761        0.962398589    
    12785.6299         122.445503        0.953928113    
    12787.7305         121.516327        0.946689308    
    12789.8203         120.528015        0.938989699    
    12791.9199         119.844368        0.933663666    
    12794.0596         119.356277        0.929861188    
    12796.2500         119.009018        0.927155733    
    12798.4297         118.736053        0.925029218    
    12800.6201         118.757050        0.925192773    
    12802.8398         118.629700        0.924200654    
    12805.0703         118.741447        0.925071180    
    12807.2998         118.906830        0.926359653    
    12809.5801         119.039932        0.927396595    
    12811.9004         119.315262        0.929541588    
    12814.1699         119.577271        0.931582808    
    12816.5400         119.902023        0.934112847    
    12818.8604         120.167923        0.936184347    
    12821.2598         120.478081        0.938600659    
    12823.6299         120.803276        0.941134155    
    12826.0400         121.179169        0.944062650    
    12828.4502         121.491249        0.946493924    
    12830.9004         122.004295        0.950490892    
    12833.3604         122.423737        0.953758538    
    12835.8604         122.904327        0.957502723    
    12838.3604         123.430191        0.961599469    
    12840.9004         123.885315        0.965145230    
    12843.4502         124.376900        0.968974948    
    12846.0000         124.805222        0.972311854    
    12848.5898         125.271500        0.975944459    
    12851.1797         125.787964        0.979968071    
    12853.7695         126.075241        0.982206106    
    12856.4102         126.635773        0.986573040    
    12859.0898         126.822372        0.988026738    
    12861.7803         126.842026        0.988179862    
    12864.4600         127.153122        0.990603507    
    12867.1904         127.062035        0.989893854    
    12869.9199         127.087639        0.990093350    
    12872.6504         126.852928        0.988264799    
    12875.4199         127.007339        0.989467740    
    12878.2002         126.808258        0.987916768    
    12881.0195         126.487427        0.985417306    
    12883.8496         126.380371        0.984583259    
    12886.7100         126.154816        0.982826054    
    12889.5801         125.958885        0.981299639    
    12892.4502         125.672493        0.979068458    
    12895.3701         125.327751        0.976382673    
    12898.2803         125.037582        0.974122107    
    12901.2402         124.695770        0.971459150    
    12904.2100         124.329491        0.968605638    
    12907.1699         124.055603        0.966471851    
    12910.1797         123.648254        0.963298380    
    12913.1904         123.408813        0.961432934    
    12916.2500         123.081429        0.958882391    
    12919.2998         122.725830        0.956112087    
    12922.3604         122.514038        0.954462051    
    12925.4697         122.316040        0.952919543    
    12928.5703         122.018936        0.950604916    
    12931.7197         121.862129        0.949383318    
    12934.8799         121.699211        0.948114038    
    12938.0303         121.626465        0.947547317    
    12941.2305         121.487259        0.946462870    
    12944.4297         121.467590        0.946309626    
    12947.6797         121.280266        0.944850206    
    12950.9199         121.328224        0.945223868    
    12954.2197         121.237663        0.944518328    
    12957.4697         121.303154        0.945028543    
    12960.8096         121.300751        0.945009828    
    12964.1104         121.321999        0.945175350    
    12967.4502         121.498001        0.946546495    
    12970.8398         121.629402        0.947570205    
    12974.1904         121.778122        0.948728800    
    12977.6299         121.889740        0.949598372    
    12981.0303         121.994896        0.950417697    
    12984.4697         122.131607        0.951482713    
    12987.9600         123.727287        0.963914096    
    12991.4004         122.271568        0.952573121    
    12994.9004         122.559982        0.954820037    
    12998.4297         123.218231        0.959948182    
    13001.9697         122.424393        0.953763664    
    13005.5195         122.551933        0.954757333    
    13009.0996         122.542793        0.954686105    
    13012.6904         122.645775        0.955488384    
    13016.2900         122.677727        0.955737293    
    13019.9297         122.661293        0.955609262    
    13023.6104         122.780998        0.956541896    
    13027.2500         122.726158        0.956114650    
    13030.9404         122.673019        0.955700636    
    13034.6797         122.604935        0.955170214    
    13038.3799         122.470596        0.954123676    
    13042.1201         122.344841        0.953143895    
    13045.9004         122.132591        0.951490343    
    13049.6904         122.070801        0.951008976    
    13053.4902         121.901657        0.949691236    
    13057.3203         121.732101        0.948370278    
    13061.1699         121.584686        0.947221816    
    13065.0098         121.375214        0.945589960    
    13068.9004         121.257393        0.944672048    
    13072.7900         121.124443        0.943636298    
    13076.7305         120.904709        0.941924393    
    13080.6797         120.723289        0.940510988    
    13084.6201         120.526123        0.938974917    
    13088.6104         120.363495        0.937708020    
    13092.6104         120.155609        0.936088443    
    13096.6104         119.963440        0.934591293    
    13100.6504         119.811714        0.933409274    
    13104.7002         119.697670        0.932520807    
    13108.7500         119.524872        0.931174576    
    13112.8496         119.381973        0.930061281    
    13116.9502         119.231194        0.928886652    
    13121.0996         119.122749        0.928041816    
    13125.2500         119.021065        0.927249610    
    13129.4004         119.116013        0.927989364    
    13133.5996         118.830322        0.925763607    
    13137.8096         118.858841        0.925985754    
    13142.0195         118.872108        0.926089168    
    13146.2695         118.775780        0.925338686    
    13150.5303         118.751877        0.925152421    
    13154.8301         118.776932        0.925347686    
    13159.1396         118.867859        0.926056027    
    13163.4600         118.738731        0.925050020    
    13167.7695         118.743843        0.925089896    
    13172.1396         118.744331        0.925093710    
    13176.5498         118.697472        0.924728632    
    13180.9199         118.596848        0.923944712    
    13185.3301         118.613205        0.924072146    
    13189.7998         118.689796        0.924668849    
    13194.2305         118.718964        0.924896002    
    13198.7002         118.691208        0.924679816    
    13203.2197         118.488457        0.923100233    
    13207.7002         118.460632        0.922883511    
    13212.2305         118.356987        0.922076046    
    13216.8096         118.361435        0.922110677    
    13221.3799         118.225807        0.921054006    
    13225.9697         118.124168        0.920262218    
    13230.5596         118.088310        0.919982851    
    13235.1904         117.857407        0.918183982    
    13239.8301         117.754768        0.917384386    
    13244.5195         117.598740        0.916168809    
    13249.2100         117.533806        0.915662885    
    13253.9102         117.346825        0.914206266    
    13258.6104         117.181236        0.912916183    
    13263.3604         117.007935        0.911566019    
    13268.1104         116.871437        0.910502672    
    13272.9102         116.727776        0.909383416    
    13277.7100         116.583878        0.908262372    
    13282.5195         116.426979        0.907040060    
    13287.3398         116.246590        0.905634642    
    13292.2002         116.069145        0.904252231    
    13297.1104         115.911751        0.903026104    
    13301.9805         115.685165        0.901260853    
    13306.9004         115.517418        0.899953961    
    13311.8301         115.401154        0.899048209    
    13316.7998         115.272507        0.898045957    
    13321.7803         115.167793        0.897230208    
    13326.7598         114.949905        0.895532668    
    13331.7500         114.804260        0.894398034    
    13336.7803         114.722588        0.893761754    
    13341.8203         114.644829        0.893155932    
    13346.9102         114.590096        0.892729521    
    13352.0098         114.463005        0.891739428    
    13357.1104         114.365250        0.890977859    
    13362.2100         114.223755        0.889875531    
    13367.3604         114.105820        0.888956726    
    13372.5195         114.033104        0.888390243    
    13377.7305         113.913399        0.887457669    
    13382.8896         113.788994        0.886488438    
    13388.1602         113.652802        0.885427415    
    13393.3799         113.452103        0.883863866    
    13398.6504         113.352646        0.883089006    
    13403.9297         113.301308        0.882689118    
    13409.2100         113.138641        0.881421804    
    13414.5400         113.060120        0.880810082    
    13419.8799         112.889893        0.879483938    
    13425.2197         112.753838        0.878423989    
    13430.5703         112.735558        0.878281534    
    13435.9697         112.620171        0.877382576    
    13441.4199         112.563873        0.876944005    
